E (eV)	eps1 	eps2 		
9.6	-1.978	2.4095
9.58	-1.9669	2.4363
9.56	-1.9645	2.4652
9.54	-1.9675	2.4957
9.52	-1.9741	2.5279
9.5	-1.9828	2.5613
9.48	-1.9927	2.5958
9.46	-2.0033	2.6308
9.44	-2.014	2.6665
9.42	-2.0247	2.7023
9.4	-2.0351	2.738
9.38	-2.0453	2.7733
9.36	-2.0552	2.8083
9.34	-2.065	2.8427
9.32	-2.075	2.8765
9.3	-2.0851	2.9093
9.28	-2.0957	2.9415
9.26	-2.107	2.9731
9.24	-2.1193	3.0041
9.22	-2.1326	3.0348
9.2	-2.1472	3.0653
9.18	-2.1631	3.0959
9.16	-2.1805	3.1268
9.14	-2.1994	3.1586
9.12	-2.2196	3.1911
9.1	-2.2413	3.225
9.08	-2.2641	3.2603
9.06	-2.2881	3.2974
9.04	-2.3129	3.3361
9.02	-2.3384	3.377
9	-2.3645	3.4199
8.98	-2.3909	3.4649
8.96	-2.4175	3.5122
8.94	-2.4442	3.5617
8.92	-2.4709	3.6135
8.9	-2.4973	3.6676
8.88	-2.5235	3.7242
8.86	-2.5493	3.7833
8.84	-2.5746	3.845
8.82	-2.5992	3.9093
8.8	-2.6231	3.9767
8.78	-2.646	4.0471
8.76	-2.6676	4.1209
8.74	-2.6875	4.198
8.72	-2.7053	4.2785
8.7	-2.7206	4.3624
8.68	-2.7329	4.45
8.66	-2.7416	4.5412
8.64	-2.7462	4.6352
8.62	-2.7461	4.7323
8.6	-2.7408	4.8322
8.58	-2.7296	4.9338
8.56	-2.7123	5.0367
8.54	-2.6885	5.1403
8.52	-2.6578	5.244
8.5	-2.6204	5.346
8.48	-2.5759	5.4467
8.46	-2.525	5.5439
8.44	-2.4676	5.6379
8.42	-2.4047	5.7268
8.4	-2.3364	5.8108
8.38	-2.2637	5.8887
8.36	-2.1877	5.96
8.34	-2.1089	6.0245
8.32	-2.0287	6.0819
8.3	-1.9478	6.1323
8.28	-1.8671	6.1758
8.26	-1.7878	6.2126
8.24	-1.7106	6.2431
8.22	-1.6364	6.2678
8.2	-1.5657	6.2874
8.18	-1.4991	6.3027
8.16	-1.4369	6.3143
8.14	-1.3797	6.323
8.12	-1.3275	6.3297
8.1	-1.2801	6.335
8.08	-1.2377	6.3398
8.06	-1.2001	6.3448
8.04	-1.1671	6.3505
8.02	-1.1382	6.3577
8	-1.1132	6.3667
7.98	-1.0915	6.378
7.96	-1.0728	6.392
7.94	-1.0562	6.4089
7.92	-1.0418	6.4286
7.9	-1.029	6.4515
7.88	-1.0176	6.4775
7.86	-1.0072	6.507
7.84	-0.99738	6.54
7.82	-0.98781	6.5765
7.8	-0.97805	6.6166
7.78	-0.96781	6.6603
7.76	-0.95669	6.7076
7.74	-0.94429	6.7586
7.72	-0.93032	6.8131
7.7	-0.91436	6.8711
7.68	-0.89605	6.9325
7.66	-0.875	6.9972
7.64	-0.85079	7.0653
7.62	-0.82294	7.1366
7.6	-0.79114	7.2106
7.58	-0.75487	7.2874
7.56	-0.71355	7.3667
7.54	-0.66689	7.448
7.52	-0.61417	7.5311
7.5	-0.55501	7.6153
7.48	-0.48911	7.6999
7.46	-0.41551	7.7847
7.44	-0.33437	7.8684
7.42	-0.24524	7.9501
7.4	-0.14772	8.029
7.38	-0.042013	8.1037
7.36	0.071715	8.1732
7.34	0.19338	8.2362
7.32	0.32211	8.2913
7.3	0.45708	8.3375
7.28	0.59723	8.3736
7.26	0.74161	8.3988
7.24	0.88846	8.4122
7.22	1.0365	8.4134
7.2	1.1837	8.4022
7.18	1.3282	8.3788
7.16	1.4689	8.3433
7.14	1.6036	8.2967
7.12	1.7312	8.2398
7.1	1.8506	8.1738
7.08	1.9603	8.1001
7.06	2.0596	8.0203
7.04	2.1485	7.9358
7.02	2.2265	7.8481
7	2.2938	7.759
6.98	2.3507	7.6695
6.96	2.3977	7.581
6.94	2.4355	7.4948
6.92	2.4649	7.4114
6.9	2.4868	7.3318
6.88	2.5019	7.2564
6.86	2.5113	7.1854
6.84	2.5157	7.1194
6.82	2.5159	7.0581
6.8	2.5126	7.0016
6.78	2.5065	6.9498
6.76	2.498	6.9026
6.74	2.4877	6.8596
6.72	2.4758	6.8207
6.7	2.4628	6.7857
6.68	2.4489	6.7542
6.66	2.4341	6.7262
6.64	2.4188	6.7014
6.62	2.4029	6.6795
6.6	2.3866	6.6605
6.58	2.3699	6.6443
6.56	2.3528	6.6307
6.54	2.3355	6.6197
6.52	2.3179	6.6112
6.5	2.3001	6.6053
6.48	2.2821	6.6017
6.46	2.2641	6.6007
6.44	2.246	6.602
6.42	2.2281	6.6058
6.4	2.2102	6.6121
6.38	2.1927	6.6207
6.36	2.1755	6.6316
6.34	2.1589	6.6449
6.32	2.1428	6.6604
6.3	2.1274	6.6781
6.28	2.1129	6.6979
6.26	2.0993	6.7196
6.24	2.0866	6.7432
6.22	2.0749	6.7685
6.2	2.0643	6.7953
6.18	2.0547	6.8235
6.16	2.046	6.853
6.14	2.0383	6.8836
6.12	2.0313	6.9153
6.1	2.0251	6.9479
6.08	2.0194	6.9814
6.06	2.014	7.0158
6.04	2.0088	7.0511
6.02	2.0036	7.0873
6	1.9982	7.1246
5.98	1.9924	7.1632
5.96	1.9861	7.2032
5.94	1.9791	7.2448
5.92	1.9714	7.2885
5.9	1.9629	7.3346
5.88	1.9536	7.3833
5.86	1.9437	7.4353
5.84	1.9333	7.4906
5.82	1.9225	7.55
5.8	1.9117	7.6135
5.78	1.9013	7.6819
5.76	1.8917	7.7551
5.74	1.8833	7.8338
5.72	1.8768	7.9179
5.7	1.8728	8.0077
5.68	1.8719	8.1032
5.66	1.8748	8.2046
5.64	1.8823	8.3117
5.62	1.8949	8.4243
5.6	1.9135	8.5422
5.58	1.9388	8.6648
5.56	1.9713	8.792
5.54	2.0119	8.9232
5.52	2.0608	9.0575
5.5	2.1188	9.1944
5.48	2.1863	9.3332
5.46	2.2635	9.4728
5.44	2.3507	9.6126
5.42	2.448	9.7514
5.4	2.5554	9.8884
5.38	2.6728	10.023
5.36	2.8001	10.153
5.34	2.9365	10.279
5.32	3.0821	10.4
5.3	3.2359	10.514
5.28	3.3974	10.622
5.26	3.5656	10.722
5.24	3.7397	10.815
5.22	3.9193	10.9
5.2	4.1032	10.977
5.19	4.1968	11.012
5.18	4.2911	11.046
5.17	4.3863	11.077
5.16	4.4821	11.107
5.15	4.5787	11.135
5.14	4.676	11.161
5.13	4.774	11.185
5.12	4.8724	11.208
5.11	4.9715	11.228
5.1	5.071	11.247
5.09	5.1714	11.264
5.08	5.2721	11.28
5.07	5.3735	11.293
5.06	5.4752	11.305
5.05	5.5774	11.315
5.04	5.6803	11.323
5.03	5.7836	11.33
5.02	5.8875	11.334
5.01	5.9917	11.336
5	6.0965	11.337
4.99	6.2015	11.335
4.98	6.3067	11.331
4.97	6.4123	11.325
4.96	6.5178	11.317
4.95	6.6236	11.307
4.94	6.7291	11.294
4.93	6.8348	11.279
4.92	6.94	11.261
4.91	7.0449	11.242
4.9	7.1494	11.22
4.89	7.2532	11.195
4.88	7.3564	11.169
4.87	7.4588	11.14
4.86	7.5603	11.108
4.85	7.6607	11.075
4.84	7.76	11.04
4.83	7.858	11.002
4.82	7.9546	10.963
4.81	8.0498	10.921
4.8	8.1434	10.878
4.79	8.2353	10.833
4.78	8.3257	10.787
4.77	8.414	10.739
4.76	8.5005	10.69
4.75	8.5852	10.639
4.74	8.6678	10.587
4.73	8.7482	10.535
4.72	8.8268	10.482
4.71	8.9031	10.428
4.7	8.9772	10.373
4.69	9.0493	10.319
4.68	9.1191	10.264
4.67	9.1868	10.209
4.66	9.2523	10.155
4.65	9.3157	10.101
4.64	9.3772	10.047
4.63	9.4367	9.9948
4.62	9.4945	9.9435
4.61	9.5482	9.8934
4.6	9.6025	9.845
4.59	9.6553	9.7984
4.58	9.7071	9.7536
4.57	9.7579	9.7111
4.56	9.8082	9.6709
4.55	9.8582	9.6333
4.54	9.9082	9.5983
4.53	9.9587	9.566
4.52	10.01	9.5365
4.51	10.063	9.5099
4.5	10.118	9.4861
4.49	10.175	9.4649
4.48	10.235	9.4463
4.47	10.298	9.4298
4.46	10.365	9.4153
4.45	10.437	9.4023
4.44	10.513	9.3903
4.43	10.595	9.3788
4.42	10.683	9.3671
4.41	10.776	9.3544
4.4	10.876	9.34
4.39	10.981	9.3231
4.38	11.093	9.3028
4.37	11.211	9.2782
4.36	11.335	9.2484
4.35	11.464	9.2125
4.34	11.598	9.1697
4.33	11.736	9.1193
4.32	11.877	9.0604
4.31	12.021	8.9927
4.3	12.167	8.9154
4.29	12.314	8.8284
4.28	12.459	8.7313
4.27	12.604	8.624
4.26	12.745	8.507
4.25	12.883	8.3799
4.24	13.017	8.2434
4.23	13.144	8.098
4.22	13.265	7.9445
4.21	13.378	7.7832
4.2	13.484	7.6151
4.19	13.58	7.4412
4.18	13.667	7.2623
4.17	13.745	7.0793
4.16	13.814	6.8931
4.15	13.872	6.7047
4.14	13.921	6.5154
4.13	13.961	6.3255
4.12	13.991	6.1359
4.11	14.012	5.9477
4.1	14.024	5.7613
4.09	14.029	5.577
4.08	14.026	5.3962
4.07	14.015	5.2185
4.06	13.998	5.0446
4.05	13.975	4.875
4.04	13.946	4.7095
4.03	13.912	4.5489
4.02	13.873	4.3927
4.01	13.83	4.2414
4	13.784	4.0951
3.9934	13.751	4.0018
3.99	13.734	3.9537
3.9859	13.712	3.8966
3.98	13.681	3.8171
3.9783	13.672	3.7948
3.9708	13.631	3.696
3.97	13.626	3.6857
3.9633	13.588	3.6004
3.96	13.569	3.5591
3.9558	13.545	3.508
3.95	13.511	3.4376
3.9484	13.501	3.4186
3.941	13.457	3.3324
3.94	13.451	3.3209
3.9336	13.413	3.2491
3.93	13.391	3.2092
3.9263	13.368	3.1686
3.92	13.331	3.1023
3.9189	13.325	3.0913
3.9116	13.282	3.0168
3.91	13.272	3.0003
3.9044	13.24	2.9451
3.9	13.215	2.9033
3.8971	13.2	2.8763
3.89	13.162	2.811
3.8899	13.162	2.8102
3.8827	13.128	2.7469
3.88	13.117	2.7236
3.8756	13.1	2.6863
3.87	13.083	2.6411
3.8684	13.08	2.6284
3.8613	13.075	2.5732
3.86	13.077	2.5632
3.8542	12.908	2.5205
3.85	12.888	2.4903
3.8472	12.875	2.4705
3.8401	12.854	2.4155
3.84	12.853	2.4143
3.8331	12.826	2.3517
3.83	12.594	2.3232
3.8261	12.611	2.288
3.82	12.621	2.2318
3.8192	12.621	2.2244
3.8122	12.615	2.1611
3.81	12.611	2.1405
3.8054	12.599	2.0983
3.8	12.583	2.0499
3.7985	12.578	2.0361
3.7916	12.552	1.9745
3.7848	12.522	1.9138
3.778	12.49	1.854
3.7712	12.455	1.7952
3.7644	12.419	1.7375
3.7577	12.381	1.6809
3.751	12.341	1.6256
3.7443	12.301	1.5714
3.7377	12.259	1.5191
3.7311	12.217	1.468
3.7245	12.174	1.4182
3.718	12.13	1.3698
3.7115	12.085	1.3229
3.705	12.04	1.2773
3.6985	11.995	1.2332
3.692	11.95	1.1904
3.6856	11.904	1.149
3.6792	11.858	1.109
3.6728	11.812	1.0703
3.6665	11.766	1.033
3.6601	11.72	0.99684
3.6538	11.674	0.96199
3.6475	11.523	0.92839
3.6412	11.502	0.8959
3.6349	11.474	0.86454
3.6287	11.441	0.83431
3.6225	11.405	0.80513
3.6163	11.368	0.77698
3.6102	11.329	0.74981
3.604	11.29	0.72359
3.5979	11.25	0.69829
3.5918	11.211	0.67388
3.5857	11.171	0.65037
3.5796	11.131	0.62763
3.5736	11.091	0.60569
3.5675	11.052	0.58455
3.5615	11.012	0.56414
3.5556	10.973	0.54441
3.5496	10.935	0.52539
3.5436	10.896	0.50698
3.5377	10.858	0.48924
3.5318	10.821	0.47207
3.5259	10.784	0.45551
3.5201	10.747	0.43948
3.5142	10.71	0.42401
3.5084	10.674	0.40902
3.5026	10.639	0.39453
3.4968	10.603	0.38052
3.491	10.569	0.36697
3.4853	10.534	0.35385
3.4795	10.5	0.34116
3.4738	10.467	0.32887
3.4681	10.433	0.31698
3.4625	10.401	0.30545
3.4568	10.368	0.29429
3.4512	10.336	0.28347
3.4455	10.304	0.27299
3.4399	10.273	0.26284
3.4344	10.242	0.25299
3.4288	10.212	0.24346
3.4232	10.181	0.23421
3.4177	10.151	0.22524
3.4122	10.122	0.21656
3.4067	10.093	0.20814
3.4012	10.064	0.19997
3.3958	10.035	0.19205
3.3903	10.007	0.18438
3.3849	9.9793	0.17695
3.3795	9.9518	0.16974
3.3741	9.9245	0.16276
3.3687	9.8976	0.15599
3.3634	9.871	0.14944
3.3581	9.8446	0.14309
3.3527	9.8186	0.13694
3.3474	9.7928	0.13098
3.3421	9.7674	0.12522
3.3369	9.7422	0.11964
3.3316	9.7172	0.11424
3.3264	9.6926	0.10902
3.3212	9.6682	0.10397
3.316	9.6441	0.099097
3.3108	9.6203	0.094384
3.3056	9.5967	0.089835
3.3004	9.5734	0.085439
3.2953	9.5503	0.0812
3.2902	9.5275	0.077117
3.2851	9.5049	0.073177
3.28	9.4826	0.069385
3.2749	9.4604	0.065731
3.2698	9.4386	0.062219
3.2648	9.417	0.058847
3.2598	9.3956	0.055604
3.2548	9.3744	0.052488
3.2497	9.3534	0.049504
3.2448	9.3327	0.046649
3.2398	9.3122	0.043914
3.2348	9.292	0.041302
3.2299	9.2719	0.038807
3.225	9.2521	0.03643
3.2201	9.2325	0.034166
3.2152	9.2131	0.032015
3.2103	9.1939	0.029973
3.2055	9.1749	0.02804
3.2006	9.1562	0.026212
3.1958	9.1376	0.024487
3.191	9.1192	0.022868
3.1861	9.1011	0.021346
3.1813	9.0831	0.019924
3.1766	9.0654	0.018598
3.1718	9.0478	0.017368
3.1671	9.0305	0.016234
3.1623	9.0134	0.015188
3.1576	8.9964	0.014234
3.1529	8.9797	0.01337
3.1482	8.9632	0.012593
3.1435	8.9469	0.011901
3.1389	8.9308	0.011295
3.1342	8.915	0.010771
3.1296	8.8994	0.010308
3.125	8.884	0.0098662
3.1204	8.8688	0.009442
3.1158	8.8539	0.0090358
3.1112	8.8391	0.008646
3.1066	8.8245	0.0082722
3.1021	8.81	0.0079136
3.0975	8.7958	0.0075705
3.093	8.7817	0.0072422
3.0885	8.7678	0.0069267
3.084	8.754	0.0066248
3.0795	8.7404	0.0063355
3.075	8.727	0.0060587
3.0705	8.7137	0.0057929
3.0661	8.7005	0.0055387
3.0617	8.6875	0.0052957
3.0572	8.6746	0.0050623
3.0528	8.6619	0.0048392
3.0485	8.6494	0.0046274
3.0441	8.6371	0.0044245
3.0398	8.6248	0.00423
3.0354	8.6127	0.0040438
3.0311	8.6007	0.0038658
3.0268	8.5888	0.0036949
3.0225	8.577	0.0035317
3.0183	8.5654	0.0033757
3.014	8.5539	0.003226
3.0098	8.5425	0.003083
3.0055	8.5312	0.0029458
3.0013	8.52	0.0028148
2.9971	8.5089	0.0026896
2.9929	8.4979	0.0025696
2.9887	8.4871	0.002455
2.9845	8.4763	0.002345
2.9803	8.4656	0.0022401
2.9761	8.4551	0.0021397
2.972	8.4446	0.0020437
2.9679	8.4342	0.001952
2.9637	8.4239	0.0018641
2.9596	8.4138	0.0017803
2.9555	8.4037	0.0017001
2.9514	8.3937	0.0016234
2.9474	8.3838	0.00155
2.9433	8.3739	0.0014799
2.9392	8.3642	0.0014129
2.9352	8.3545	0.001349
2.9311	8.345	0.0012877
2.9271	8.3355	0.0012293
2.9231	8.3261	0.0011735
2.9191	8.3168	0.0011201
2.9151	8.3075	0.0010691
2.9111	8.2984	0.0010204
2.9072	8.2893	9.7381E-4
2.9032	8.2803	9.2933E-4
2.8993	8.2713	8.8683E-4
2.8953	8.2625	8.4633E-4
2.8914	8.2537	8.0755E-4
2.8875	8.245	7.706E-4
2.8836	8.2363	7.3521E-4
2.8797	8.2278	7.0151E-4
2.8758	8.2193	6.6923E-4
2.8719	8.2108	6.385E-4
2.8681	8.2025	6.0914E-4
2.8642	8.1942	5.8111E-4
2.8604	8.1859	5.5428E-4
2.8565	8.1778	5.2874E-4
2.8527	8.1697	5.0435E-4
2.8489	8.1617	4.8107E-4
2.8451	8.1537	4.5885E-4
2.8413	8.1458	4.3764E-4
2.8375	8.1379	4.1739E-4
2.8338	8.1301	3.9807E-4
2.83	8.1224	3.7963E-4
2.8263	8.1147	3.6203E-4
2.8225	8.1071	3.452E-4
2.8188	8.0996	3.2918E-4
2.8151	8.0921	3.139E-4
2.8114	8.0846	2.9931E-4
2.8077	8.0772	2.854E-4
2.804	8.0699	2.7213E-4
2.8003	8.0626	2.5947E-4
2.7966	8.0554	2.4736E-4
2.7929	8.0483	2.3584E-4
2.7893	8.0411	2.2485E-4
2.7856	8.0341	2.1435E-4
2.782	8.0271	2.0435E-4
2.7784	8.0201	1.9482E-4
2.7748	8.0132	1.8571E-4
2.7712	8.0063	1.7702E-4
2.7676	7.9995	1.6876E-4
2.764	7.9928	1.6086E-4
2.7604	7.986	1.5332E-4
2.7568	7.9794	1.4614E-4
2.7533	7.9727	1.393E-4
2.7497	7.9662	1.3277E-4
2.7462	7.9596	1.2655E-4
2.7427	7.9532	1.2062E-4
2.7391	7.9467	1.1496E-4
2.7356	7.9403	1.0956E-4
2.7321	7.934	1.0442E-4
2.7286	7.9277	9.9513E-5
2.7251	7.9214	9.4848E-5
2.7217	7.9152	9.0388E-5
2.7182	7.909	8.6139E-5
2.7147	7.9029	8.2089E-5
2.7113	7.8968	7.823E-5
2.7078	7.8907	7.4552E-5
2.7044	7.8847	7.1038E-5
2.701	7.8787	6.7699E-5
2.6976	7.8728	6.4509E-5
2.6941	7.8669	6.1469E-5
2.6907	7.861	5.8573E-5
2.6874	7.8552	5.5814E-5
2.684	7.8494	5.3186E-5
2.6806	7.8437	5.0675E-5
2.6772	7.838	4.8289E-5
2.6739	7.8323	4.601E-5
2.6705	7.8267	4.3839E-5
2.6672	7.8211	4.1771E-5
2.6638	7.8155	3.9802E-5
2.6605	7.81	3.7926E-5
2.6572	7.8045	3.6134E-5
2.6539	7.7991	3.4432E-5
2.6506	7.7937	3.2806E-5
2.6473	7.7883	3.1257E-5
2.644	7.7829	2.9778E-5
2.6408	7.7776	2.8374E-5
2.6375	7.7723	2.7032E-5
2.6342	7.7671	2.5759E-5
2.631	7.7618	2.4542E-5
2.6277	7.7566	2.338E-5
2.6245	7.7515	2.2277E-5
2.6213	7.7464	2.1223E-5
2.6181	7.7413	2.0223E-5
2.6148	7.7362	1.9265E-5
2.6117	7.7312	1.8356E-5
2.6085	7.7262	1.749E-5
2.6053	7.7212	1.6662E-5
2.6021	7.7163	1.5875E-5
2.5989	7.7114	1.5125E-5
2.5958	7.7065	1.4411E-5
2.5926	7.7016	1.3729E-5
2.5895	7.6968	1.308E-5
2.5863	7.692	1.2463E-5
2.5832	7.6872	1.1874E-5
2.58	7.6825	1.1312E-5
2.577	7.6778	1.0783E-5
2.5739	7.6732	1.0278E-5
2.5708	7.6686	9.7963E-6
2.5677	7.664	9.3372E-6
2.5647	7.6594	8.9002E-6
2.5616	7.6549	8.4826E-6
2.5586	7.6504	8.0863E-6
2.5555	7.6459	7.7078E-6
2.5525	7.6414	7.346E-6
2.5495	7.637	7.0028E-6
2.5464	7.6326	6.6748E-6
2.5434	7.6282	6.3615E-6
2.5404	7.6238	6.0643E-6
2.5374	7.6195	5.7802E-6
2.5344	7.6152	5.5098E-6
2.5315	7.6109	5.2523E-6
2.5285	7.6066	5.0063E-6
2.5255	7.6024	4.7721E-6
2.5226	7.5981	4.5491E-6
2.5196	7.5939	4.3361E-6
2.5166	7.5898	4.134E-6
2.5137	7.5856	3.9402E-6
2.5108	7.5815	3.7564E-6
2.5078	7.5774	3.5808E-6
2.5049	7.5733	3.4136E-6
2.502	7.5693	3.2539E-6
2.4991	7.5652	3.1023E-6
2.4962	7.5612	2.9575E-6
2.4933	7.5572	2.8193E-6
2.4904	7.5532	2.6876E-6
2.4875	7.5493	2.5622E-6
2.4847	7.5454	2.4429E-6
2.4818	7.5415	2.3289E-6
2.4789	7.5376	2.2204E-6
2.4761	7.5337	2.117E-6
2.4732	7.5299	2.0183E-6
2.4704	7.526	1.9243E-6
2.4676	7.5222	1.8345E-6
2.4647	7.5184	1.7491E-6
2.4619	7.5147	1.6677E-6
2.4591	7.5109	1.5902E-6
2.4563	7.5072	1.5162E-6
2.4535	7.5035	1.4458E-6
2.4507	7.4998	1.3785E-6
2.4479	7.4961	1.3144E-6
2.4451	7.4925	1.2534E-6
2.4423	7.4889	1.1951E-6
2.4396	7.4852	1.1396E-6
2.4368	7.4816	1.0866E-6
2.434	7.4781	1.0363E-6
2.4313	7.4745	9.8813E-7
2.4285	7.471	9.424E-7
2.4258	7.4675	8.9871E-7
2.4231	7.4639	8.5696E-7
2.4203	7.4605	8.1736E-7
2.4176	7.457	7.7953E-7
2.4149	7.4535	7.4337E-7
2.4122	7.4501	7.0895E-7
2.4095	7.4467	6.762E-7
2.4068	7.4433	6.4489E-7
2.4041	7.4399	6.1508E-7
2.4014	7.4365	5.8672E-7
2.3987	7.4332	5.596E-7
2.3961	7.4299	5.3379E-7
2.3934	7.4265	5.0912E-7
2.3907	7.4233	4.8564E-7
2.3881	7.42	4.632E-7
2.3854	7.4167	4.4184E-7
2.3828	7.4134	4.215E-7
2.3801	7.4102	4.0207E-7
2.3775	7.407	3.8357E-7
2.3749	7.4038	3.6595E-7
2.3723	7.4006	3.4912E-7
2.3697	7.3974	3.3303E-7
2.3671	7.3943	3.1771E-7
2.3644	7.3911	3.0313E-7
2.3619	7.388	2.8919E-7
2.3593	7.3849	2.7592E-7
2.3567	7.3818	2.6329E-7
2.3541	7.3787	2.5121E-7
2.3515	7.3756	2.3967E-7
2.3489	7.3726	2.2869E-7
2.3464	7.3695	2.1822E-7
2.3438	7.3665	2.0822E-7
2.3413	7.3635	1.987E-7
2.3387	7.3605	1.8964E-7
2.3362	7.3575	1.8094E-7
2.3337	7.3546	1.7269E-7
2.3311	7.3516	1.648E-7
2.3286	7.3487	1.5729E-7
2.3261	7.3457	1.5011E-7
2.3236	7.3428	1.4325E-7
2.3211	7.3399	1.3671E-7
2.3186	7.337	1.3049E-7
2.3161	7.3342	1.2454E-7
2.3136	7.3313	1.1888E-7
2.3111	7.3285	1.1348E-7
2.3086	7.3256	1.0833E-7
2.3061	7.3228	1.034E-7
2.3037	7.32	9.8702E-8
2.3012	7.3172	9.4213E-8
2.2987	7.3144	8.9938E-8
2.2963	7.3116	8.5867E-8
2.2938	7.3089	8.1976E-8
2.2914	7.3061	7.8267E-8
2.2889	7.3034	7.4723E-8
2.2865	7.3007	7.1335E-8
2.2841	7.298	6.8105E-8
2.2817	7.2953	6.5032E-8
2.2792	7.2926	6.2093E-8
2.2768	7.2899	5.9292E-8
2.2744	7.2873	5.6615E-8
2.272	7.2846	5.4066E-8
2.2696	7.282	5.1626E-8
2.2672	7.2794	4.9303E-8
2.2648	7.2768	4.7082E-8
2.2625	7.2742	4.4966E-8
2.2601	7.2716	4.2941E-8
2.2577	7.269	4.1014E-8
2.2553	7.2664	3.917E-8
2.253	7.2639	3.7406E-8
2.2506	7.2613	3.5734E-8
2.2483	7.2588	3.4127E-8
2.2459	7.2563	3.2603E-8
2.2436	7.2537	3.1138E-8
2.2412	7.2512	2.9744E-8
2.2389	7.2488	2.8415E-8
2.2366	7.2463	2.7144E-8
2.2343	7.2438	2.5943E-8
2.232	7.2414	2.4794E-8
2.2297	7.239	2.3699E-8
2.2274	7.2366	2.2651E-8
2.2251	7.2342	2.1648E-8
2.2228	7.2318	2.0691E-8
2.2206	7.2294	1.978E-8
2.2183	7.227	1.8908E-8
2.216	7.2246	1.8073E-8
2.2138	7.2223	1.7277E-8
2.2115	7.2199	1.6519E-8
2.2092	7.2176	1.579E-8
2.207	7.2153	1.5098E-8
2.2048	7.213	1.4432E-8
2.2025	7.2107	1.3801E-8
2.2003	7.2084	1.3193E-8
2.1981	7.2061	1.2615E-8
2.1958	7.2038	1.2063E-8
2.1936	7.2015	1.1535E-8
2.1914	7.1993	1.1029E-8
2.1892	7.197	1.0546E-8
2.187	7.1948	1.0087E-8
2.1848	7.1926	9.6466E-9
2.1826	7.1903	9.225E-9
2.1804	7.1881	8.8215E-9
2.1782	7.1859	8.4385E-9
2.176	7.1837	8.0697E-9
2.1738	7.1815	7.7185E-9
2.1717	7.1794	7.3837E-9
2.1695	7.1772	7.0612E-9
2.1673	7.175	6.7553E-9
2.1651	7.1729	6.4611E-9
2.163	7.1708	6.1819E-9
2.1608	7.1686	5.9129E-9
2.1587	7.1665	5.6567E-9
2.1565	7.1644	5.4125E-9
2.1544	7.1623	5.1783E-9
2.1523	7.1602	4.954E-9
2.1501	7.1581	4.7402E-9
2.148	7.156	4.5354E-9
2.1459	7.1539	4.3391E-9
2.1438	7.1519	4.1519E-9
2.1416	7.1498	3.9736E-9
2.1395	7.1477	3.8018E-9
2.1374	7.1457	3.6387E-9
2.1353	7.1437	3.4817E-9
2.1332	7.1417	3.3321E-9
2.1311	7.1396	3.1893E-9
2.129	7.1376	3.0524E-9
2.127	7.1356	2.9214E-9
2.1249	7.1336	2.7964E-9
2.1228	7.1316	2.6765E-9
2.1207	7.1297	2.5617E-9
2.1186	7.1277	2.4522E-9
2.1166	7.1257	2.3477E-9
2.1145	7.1238	2.2471E-9
2.1125	7.1218	2.1516E-9
2.1104	7.1199	2.0597E-9
2.1084	7.118	1.9719E-9
2.1063	7.116	1.8878E-9
2.1043	7.1141	1.8075E-9
2.1022	7.1122	1.7307E-9
2.1002	7.1103	1.6573E-9
2.0982	7.1084	1.5869E-9
2.0961	7.1065	1.5195E-9
2.0941	7.1047	1.4552E-9
2.0921	7.1028	1.3935E-9
2.0901	7.1009	1.3344E-9
2.0881	7.099	1.278E-9
2.0861	7.0972	1.2239E-9
2.084	7.0954	1.1723E-9
2.0821	7.0935	1.1228E-9
2.08	7.0917	1.0754E-9
2.0781	7.0899	1.0301E-9
2.0761	7.088	9.8663E-10
2.0741	7.0862	9.452E-10
2.0721	7.0844	9.0549E-10
2.0701	7.0826	8.6737E-10
2.0682	7.0808	8.3099E-10
2.0662	7.0791	7.9612E-10
2.0642	7.0773	7.6269E-10
2.0623	7.0755	7.3076E-10
2.0603	7.0737	7.0012E-10
2.0584	7.072	6.7091E-10
2.0564	7.0702	6.429E-10
2.0545	7.0685	6.1599E-10
2.0525	7.0668	5.9032E-10
2.0506	7.065	5.657E-10
2.0486	7.0633	5.421E-10
2.0467	7.0616	5.1954E-10
2.0448	7.0599	4.979E-10
2.0429	7.0582	4.7726E-10
2.0409	7.0565	4.5736E-10
2.039	7.0548	4.3844E-10
2.0371	7.0531	4.2019E-10
2.0352	7.0514	4.0278E-10
2.0333	7.0497	3.8609E-10
2.0314	7.048	3.7013E-10
2.0295	7.0464	3.5482E-10
2.0276	7.0447	3.4013E-10
2.0257	7.0431	3.2612E-10
2.0238	7.0414	3.1266E-10
2.0219	7.0398	2.998E-10
2.02	7.0382	2.874E-10
2.0181	7.0365	2.7558E-10
2.0163	7.0349	2.6427E-10
2.0144	7.0333	2.5341E-10
2.0125	7.0317	2.43E-10
2.0107	7.0301	2.3301E-10
2.0088	7.0285	2.2346E-10
2.0069	7.0269	2.1429E-10
2.0051	7.0253	2.0554E-10
2.0032	7.0237	1.9715E-10
2.0014	7.0221	1.8908E-10